USNO/j/d/n
USNO Catalog, J2000, Red magnitudes
243.32452 54.58018 10.9
243.33994 54.76991 11.6
243.27546 54.74634 11.7
243.31331 54.48653 11.9
243.36621 54.65681 11.9
243.48793 54.69354 11.9
243.15036 54.52110 12.0
243.21688 54.76858 12.2
243.47139 54.69028 12.7
243.21576 54.57093 12.7
243.10440 54.72237 12.7
243.12261 54.67322 13.3
243.14037 54.68044 13.4
243.16664 54.61588 13.4
243.29932 54.50239 13.7
243.15752 54.59626 13.7
243.18764 54.54852 13.9
243.20275 54.76051 14.2
243.18285 54.76796 14.4
243.12699 54.52457 14.4
243.44058 54.63098 14.4
243.23524 54.53656 14.6
243.21299 54.48027 14.6
243.50172 54.69546 14.7
243.37491 54.63009 14.7
243.38760 54.57519 14.8
243.27026 54.73768 14.9
243.45729 54.67643 14.9
243.07174 54.57274 15.0
243.27482 54.58297 15.0
243.25285 54.52492 15.1
243.13227 54.48245 15.1
242.99899 54.57849 15.1
243.24648 54.70939 15.2
243.15071 54.73176 15.4
243.31062 54.69911 15.4
243.23781 54.59766 15.5
243.46195 54.55919 15.5
243.36295 54.64683 15.5
243.16582 54.61290 15.7
243.13212 54.72651 15.8
243.02163 54.61074 15.8
243.18446 54.62004 15.8
243.17714 54.61429 15.8
243.36865 54.64802 15.9
243.15880 54.75257 15.9
243.08634 54.60436 15.9
243.29481 54.58564 16.0
243.26618 54.50254 16.1
243.19689 54.61367 16.1
243.04049 54.69428 16.1
243.30517 54.65890 16.1
243.24537 54.66939 16.2
243.36876 54.64118 16.2
243.20445 54.52475 16.3
243.43660 54.51895 16.3
243.04943 54.66311 16.3
243.10035 54.59288 16.3
243.33929 54.61450 16.4
243.31200 54.70470 16.4
243.02721 54.63747 16.4
243.14017 54.76781 16.4
243.26695 54.75426 16.5
243.15486 54.73019 16.5
243.13031 54.71783 16.5
243.00126 54.63874 16.5
243.40202 54.57843 16.6
243.25903 54.47954 16.6
243.21564 54.47678 16.6
243.17123 54.66578 16.7
243.31209 54.67344 16.7
243.45392 54.54471 16.7
243.18058 54.72247 16.8
243.21326 54.60560 16.8
243.18631 54.71286 16.8
243.29388 54.71886 16.8
243.12969 54.48138 16.8
243.21367 54.63561 16.8
243.25258 54.48566 16.8
242.99728 54.59272 16.8
243.09946 54.64035 16.8
243.05519 54.66065 16.8
243.02513 54.58204 16.9
243.47148 54.55703 17.0
242.98929 54.63063 17.0
243.46466 54.67820 17.0
243.15240 54.61084 17.0
243.15941 54.65182 17.0
243.46318 54.62610 17.0
243.02305 54.69930 17.0
243.35047 54.62799 17.0
243.21236 54.76889 17.1
243.26358 54.78126 17.2
243.41204 54.66358 17.2
243.33424 54.64243 17.3
243.37104 54.54643 17.3
243.44891 54.64817 17.3
243.16170 54.64230 17.3
243.05741 54.72893 17.3
243.43435 54.66013 17.4
243.25461 54.64593 17.4
243.44483 54.52009 17.4
243.40197 54.71303 17.4
243.02961 54.67015 17.4
243.06952 54.50839 17.4
243.31329 54.64540 17.4
243.41761 54.69294 17.4
243.11416 54.54213 17.4
243.27989 54.59804 17.4
243.37323 54.62837 17.4
243.32921 54.58042 17.5
243.04151 54.66400 17.5
243.46961 54.57280 17.5
243.08748 54.66448 17.6
243.20598 54.66954 17.6
243.27277 54.47979 17.6
243.36231 54.58562 17.6
243.28669 54.69471 17.6
243.08545 54.51785 17.7
243.19811 54.73331 17.7
243.08851 54.60711 17.7
243.16785 54.62017 17.7
243.05443 54.68836 17.7
243.16772 54.62046 17.7
243.02516 54.54919 17.7
243.06370 54.51618 17.7
243.47364 54.67880 17.7
243.50711 54.65921 17.8
243.12490 54.54830 17.8
243.23228 54.56176 17.8
243.08718 54.66421 17.8
243.41095 54.70931 17.8
243.02124 54.67514 17.8
243.45743 54.68587 17.9
243.46862 54.67885 17.9
243.31451 54.52290 17.9
243.29155 54.56966 17.9
243.48782 54.58399 17.9
243.40351 54.59617 17.9
243.13794 54.48232 17.9
243.12679 54.73673 17.9
243.11349 54.69099 17.9
243.34676 54.50693 18.0
243.42481 54.70896 18.0
243.35326 54.65114 18.1
243.34380 54.72153 18.1
243.27275 54.58377 18.1
243.48644 54.67254 18.1
243.27011 54.74114 18.1
243.39260 54.63986 18.1
243.36801 54.66223 18.1
243.33824 54.55410 18.1
243.28491 54.59450 18.2
243.36691 54.75614 18.2
243.15551 54.71089 18.2
243.27363 54.63908 18.2
243.11888 54.65737 18.2
243.39397 54.62954 18.2
243.41483 54.56923 18.2
243.50987 54.56457 18.2
243.25326 54.75131 18.2
243.12824 54.59843 18.2
243.19558 54.54633 18.2
243.06848 54.70419 18.2
243.06566 54.70134 18.2
243.06197 54.60701 18.2
243.35387 54.55908 18.2
243.15926 54.73823 18.2
243.35446 54.50260 18.2
243.30899 54.57107 18.2
243.43746 54.68631 18.2
243.20119 54.61199 18.2
243.10606 54.66655 18.2
243.08220 54.64891 18.2
243.33791 54.49667 18.2
243.08083 54.51614 18.2
243.45358 54.68022 18.3
243.33191 54.54980 18.3
243.49937 54.69591 18.3
243.18400 54.65288 18.3
243.12231 54.72661 18.3
243.37757 54.52920 18.3
243.09971 54.71412 18.3
243.30218 54.48400 18.3
243.11093 54.71823 18.3
243.11064 54.66028 18.3
243.35791 54.76521 18.3
243.35657 54.76380 18.3
243.38611 54.72761 18.4
243.41730 54.64136 18.4
243.26609 54.54867 18.4
243.33193 54.74365 18.4
243.43091 54.60759 18.4
243.42973 54.55083 18.4
243.53091 54.63303 18.4
243.16489 54.60942 18.4
243.23251 54.70139 18.4
243.13425 54.48949 18.4
243.08549 54.60477 18.4
243.14230 54.63859 18.4
243.08483 54.69658 18.4
243.13636 54.75577 18.4
243.24027 54.72577 18.4
243.13319 54.49330 18.5
243.38639 54.64474 18.5
243.21656 54.53943 18.5
243.47029 54.69596 18.5
243.20934 54.76294 18.5
243.31167 54.60135 18.5
243.20490 54.53719 18.5
243.45622 54.62166 18.5
243.36765 54.72690 18.5
243.34050 54.70716 18.5
243.35244 54.72708 18.5
243.09955 54.72916 18.5
243.21071 54.47955 18.5
243.52521 54.60065 18.5
243.05271 54.64651 18.6
243.37308 54.50680 18.6
243.13640 54.52711 18.6
243.14108 54.65166 18.6
243.37612 54.70687 18.6
243.30811 54.62413 18.6
243.12592 54.60835 18.6
243.26451 54.72120 18.6
243.11930 54.57547 18.6
243.24260 54.64161 18.6
243.47626 54.69021 18.6
243.04249 54.65672 18.6
243.25213 54.50379 18.6
243.44099 54.54276 18.6
243.40630 54.66571 18.6
243.34924 54.62587 18.6
243.10643 54.66246 18.6
243.13582 54.57108 18.6
243.32988 54.58041 18.7
243.16522 54.61099 18.7
243.34789 54.74634 18.7
243.37097 54.60541 18.7
243.36039 54.75729 18.7
243.15431 54.54828 18.7
243.11665 54.63504 18.7
243.24925 54.74564 18.7
243.25223 54.57514 18.7
243.49015 54.65325 18.7
243.49893 54.61479 18.7
243.42834 54.54329 18.7
243.26771 54.66823 18.7
243.00900 54.68529 18.7
243.27954 54.73314 18.7
243.41561 54.69651 18.7
243.12989 54.59608 18.7
243.15904 54.69205 18.8
243.22650 54.51372 18.8
243.39684 54.67579 18.8
243.35341 54.64479 18.8
243.27471 54.52956 18.8
243.27247 54.59237 18.8
243.41927 54.75223 18.8
243.24739 54.57931 18.8
243.36774 54.75639 18.8
243.14082 54.71724 18.8
243.20810 54.57365 18.8
243.46756 54.61521 18.8
243.12524 54.74840 18.8
243.04014 54.53514 18.8
243.10958 54.70929 18.8
243.02176 54.69196 18.8
243.29775 54.66484 18.8
243.10894 54.59278 18.8
243.43650 54.69493 18.8
243.13383 54.66456 18.9
243.43207 54.65482 18.9
243.37924 54.69390 18.9
243.41070 54.49319 18.9
243.14535 54.50387 18.9
243.09518 54.53199 18.9
243.23901 54.72506 18.9
243.20981 54.55625 18.9
243.23899 54.59456 18.9
243.18645 54.72580 18.9
243.18117 54.48946 18.9
243.30394 54.71060 18.9
243.22150 54.65161 18.9
243.48474 54.57538 18.9
243.28273 54.71091 18.9
243.28045 54.49242 18.9
243.27176 54.62057 19.0
243.38967 54.63745 19.0
243.13421 54.70144 19.0
243.20825 54.71192 19.0
243.31743 54.58029 19.0
243.45953 54.62043 19.0
243.47159 54.68654 19.0
243.10316 54.67853 19.0
243.15127 54.64113 19.0
243.42522 54.52760 19.0
243.25724 54.76021 19.0
243.14692 54.64454 19.0
243.36842 54.49261 19.0
243.23298 54.76585 19.1
243.26200 54.59923 19.1
243.00743 54.67233 19.1
243.26440 54.73933 19.1
243.42418 54.58255 19.1
243.51771 54.65968 19.1
243.42642 54.71357 19.1
243.10984 54.50612 19.1
243.35281 54.53774 19.1
243.01799 54.58399 19.1
243.31024 54.65109 19.1
243.08333 54.58792 19.1
243.20208 54.60848 19.1
243.18051 54.51590 19.1
243.44274 54.66643 19.1
243.34928 54.75779 19.1
243.16504 54.61002 19.1
243.50029 54.65894 19.2
243.01686 54.69547 19.2
243.03262 54.55938 19.2
243.07987 54.53001 19.2
243.44277 54.60839 19.2
243.14372 54.74562 19.2
243.29956 54.74255 19.2
243.31033 54.76262 19.2
243.20904 54.75937 19.2
243.31549 54.56923 19.2
243.22404 54.60312 19.2
243.32024 54.72120 19.2
243.32921 54.74185 19.2
243.22842 54.53903 19.2
243.16321 54.72611 19.2
243.14714 54.64763 19.2
243.20090 54.62119 19.2
243.14372 54.74534 19.2
243.23119 54.77171 19.2
243.42066 54.69510 19.2
243.23209 54.49766 19.2
243.05151 54.71204 19.3
243.02042 54.66786 19.3
243.20986 54.55586 19.3
243.03281 54.55966 19.3
243.46707 54.66257 19.3
243.21706 54.46696 19.3
243.12795 54.58312 19.3
243.15286 54.60298 19.3
243.38328 54.62234 19.3
243.20436 54.64593 19.3
243.33046 54.56032 19.3
243.44574 54.60440 19.3
243.19732 54.50081 19.3
243.49060 54.56919 19.3
243.28226 54.62043 19.3
243.24060 54.69806 19.4
243.01939 54.63233 19.4
243.51960 54.64461 19.4
243.22315 54.68695 19.4
242.98006 54.63586 19.4
243.01763 54.65309 19.4
243.42497 54.61337 19.4
243.46125 54.70842 19.4
243.20645 54.55236 19.4
243.18647 54.64560 19.4
243.21139 54.57611 19.4
243.30101 54.76756 19.4
243.31819 54.68363 19.5
243.11544 54.61489 19.5
243.26123 54.64361 19.5
243.16532 54.62902 19.5
243.41409 54.57032 19.5
243.35061 54.76166 19.5
243.43517 54.53915 19.5
243.37025 54.60605 19.5
243.12601 54.74968 19.5
243.22651 54.50716 19.6
242.98977 54.58739 19.6
243.22489 54.53759 19.6
243.07350 54.54429 19.6
